Theta [deg.]  Phi   [deg.]  Abs(Dir.)[      ]   Abs(Theta)[      ]  Phase(Theta)[deg.]  Abs(Phi  )[      ]  Phase(Phi  )[deg.]  Ax.Ratio[      ]    
------------------------------------------------------------------------------------------------------------------------------------------------------
   0.000          90.000            2.143e-12           8.711e-13             350.738           1.272e-12             174.732           2.919e+01     
   1.000          90.000            7.040e-04           7.040e-04             273.960           1.275e-12             174.848           1.000e+02     
   2.000          90.000            2.812e-03           2.812e-03             273.946           1.284e-12             175.008           1.000e+02     
   3.000          90.000            6.310e-03           6.310e-03             273.924           1.299e-12             175.209           1.000e+02     
   4.000          90.000            1.118e-02           1.118e-02             273.893           1.320e-12             175.450           1.000e+02     
   5.000          90.000            1.738e-02           1.738e-02             273.854           1.348e-12             175.728           1.000e+02     
   6.000          90.000            2.488e-02           2.488e-02             273.805           1.383e-12             176.040           1.000e+02     
   7.000          90.000            3.363e-02           3.363e-02             273.748           1.425e-12             176.381           1.000e+02     
   8.000          90.000            4.357e-02           4.357e-02             273.681           1.474e-12             176.750           1.000e+02     
   9.000          90.000            5.463e-02           5.463e-02             273.604           1.531e-12             177.142           1.000e+02     
  10.000          90.000            6.674e-02           6.674e-02             273.517           1.596e-12             177.553           1.000e+02     
  11.000          90.000            7.981e-02           7.981e-02             273.419           1.670e-12             177.979           1.000e+02     
  12.000          90.000            9.374e-02           9.374e-02             273.311           1.752e-12             178.417           1.000e+02     
  13.000          90.000            1.084e-01           1.084e-01             273.192           1.844e-12             178.864           1.000e+02     
  14.000          90.000            1.238e-01           1.238e-01             273.060           1.946e-12             179.315           1.000e+02     
  15.000          90.000            1.397e-01           1.397e-01             272.916           2.059e-12             179.770           1.000e+02     
  16.000          90.000            1.559e-01           1.559e-01             272.759           2.183e-12             180.224           1.000e+02     
  17.000          90.000            1.725e-01           1.725e-01             272.588           2.318e-12             180.675           1.000e+02     
  18.000          90.000            1.892e-01           1.892e-01             272.402           2.466e-12             181.122           1.000e+02     
  19.000          90.000            2.058e-01           2.058e-01             272.201           2.628e-12             181.563           1.000e+02     
  20.000          90.000            2.222e-01           2.222e-01             271.982           2.802e-12             181.996           1.000e+02     
  21.000          90.000            2.383e-01           2.383e-01             271.745           2.991e-12             182.421           1.000e+02     
  22.000          90.000            2.539e-01           2.539e-01             271.489           3.195e-12             182.837           1.000e+02     
  23.000          90.000            2.688e-01           2.688e-01             271.211           3.414e-12             183.242           1.000e+02     
  24.000          90.000            2.828e-01           2.828e-01             270.910           3.649e-12             183.637           1.000e+02     
  25.000          90.000            2.959e-01           2.959e-01             270.585           3.901e-12             184.022           1.000e+02     
  26.000          90.000            3.077e-01           3.077e-01             270.231           4.169e-12             184.395           1.000e+02     
  27.000          90.000            3.182e-01           3.182e-01             269.848           4.455e-12             184.758           1.000e+02     
  28.000          90.000            3.272e-01           3.272e-01             269.431           4.757e-12             185.111           1.000e+02     
  29.000          90.000            3.346e-01           3.346e-01             268.978           5.077e-12             185.453           1.000e+02     
  30.000          90.000            3.402e-01           3.402e-01             268.484           5.415e-12             185.785           1.000e+02     
  31.000          90.000            3.439e-01           3.439e-01             267.944           5.770e-12             186.108           1.000e+02     
  32.000          90.000            3.456e-01           3.456e-01             267.353           6.141e-12             186.423           1.000e+02     
  33.000          90.000            3.453e-01           3.453e-01             266.704           6.529e-12             186.729           1.000e+02     
  34.000          90.000            3.429e-01           3.429e-01             265.990           6.933e-12             187.027           1.000e+02     
  35.000          90.000            3.384e-01           3.384e-01             265.201           7.351e-12             187.319           1.000e+02     
  36.000          90.000            3.318e-01           3.318e-01             264.327           7.784e-12             187.604           1.000e+02     
  37.000          90.000            3.231e-01           3.231e-01             263.355           8.228e-12             187.883           1.000e+02     
  38.000          90.000            3.124e-01           3.124e-01             262.270           8.684e-12             188.156           1.000e+02     
  39.000          90.000            2.998e-01           2.998e-01             261.052           9.148e-12             188.426           1.000e+02     
  40.000          90.000            2.855e-01           2.855e-01             259.678           9.620e-12             188.691           1.000e+02     
  41.000          90.000            2.697e-01           2.697e-01             258.121           1.010e-11             188.953           1.000e+02     
  42.000          90.000            2.527e-01           2.527e-01             256.346           1.057e-11             189.212           1.000e+02     
  43.000          90.000            2.347e-01           2.347e-01             254.309           1.105e-11             189.470           1.000e+02     
  44.000          90.000            2.160e-01           2.160e-01             251.958           1.153e-11             189.726           1.000e+02     
  45.000          90.000            1.971e-01           1.971e-01             249.227           1.199e-11             189.982           1.000e+02     
  46.000          90.000            1.783e-01           1.783e-01             246.033           1.245e-11             190.239           1.000e+02     
  47.000          90.000            1.602e-01           1.602e-01             242.279           1.289e-11             190.496           1.000e+02     
  48.000          90.000            1.432e-01           1.432e-01             237.851           1.332e-11             190.755           1.000e+02     
  49.000          90.000            1.279e-01           1.279e-01             232.622           1.372e-11             191.016           1.000e+02     
  50.000          90.000            1.149e-01           1.149e-01             226.477           1.410e-11             191.281           1.000e+02     
  51.000          90.000            1.046e-01           1.046e-01             219.338           1.444e-11             191.550           1.000e+02     
  52.000          90.000            9.777e-02           9.777e-02             211.232           1.476e-11             191.824           1.000e+02     
  53.000          90.000            9.497e-02           9.497e-02             202.339           1.503e-11             192.104           1.000e+02     
  54.000          90.000            9.680e-02           9.680e-02             193.024           1.527e-11             192.391           1.000e+02     
  55.000          90.000            1.039e-01           1.039e-01             183.768           1.545e-11             192.687           1.000e+02     
  56.000          90.000            1.168e-01           1.168e-01             175.035           1.559e-11             192.991           1.000e+02     
  57.000          90.000            1.360e-01           1.360e-01             167.148           1.568e-11             193.307           1.000e+02     
  58.000          90.000            1.621e-01           1.621e-01             160.250           1.571e-11             193.634           1.000e+02     
  59.000          90.000            1.955e-01           1.955e-01             154.335           1.569e-11             193.975           1.000e+02     
  60.000          90.000            2.366e-01           2.366e-01             149.316           1.561e-11             194.331           1.000e+02     
  61.000          90.000            2.858e-01           2.858e-01             145.070           1.546e-11             194.704           1.000e+02     
  62.000          90.000            3.431e-01           3.431e-01             141.474           1.526e-11             195.097           1.000e+02     
  63.000          90.000            4.088e-01           4.088e-01             138.417           1.499e-11             195.511           1.000e+02     
  64.000          90.000            4.830e-01           4.830e-01             135.804           1.467e-11             195.951           1.000e+02     
  65.000          90.000            5.654e-01           5.654e-01             133.558           1.428e-11             196.418           1.000e+02     
  66.000          90.000            6.560e-01           6.560e-01             131.616           1.384e-11             196.917           1.000e+02     
  67.000          90.000            7.543e-01           7.543e-01             129.927           1.334e-11             197.452           1.000e+02     
  68.000          90.000            8.601e-01           8.601e-01             128.451           1.279e-11             198.028           1.000e+02     
  69.000          90.000            9.726e-01           9.726e-01             127.154           1.220e-11             198.651           1.000e+02     
  70.000          90.000            1.091e+00           1.091e+00             126.011           1.156e-11             199.328           1.000e+02     
  71.000          90.000            1.215e+00           1.215e+00             124.998           1.089e-11             200.067           1.000e+02     
  72.000          90.000            1.343e+00           1.343e+00             124.099           1.018e-11             200.879           1.000e+02     
  73.000          90.000            1.475e+00           1.475e+00             123.298           9.457e-12             201.776           1.000e+02     
  74.000          90.000            1.609e+00           1.609e+00             122.583           8.714e-12             202.774           1.000e+02     
  75.000          90.000            1.744e+00           1.744e+00             121.944           7.962e-12             203.890           1.000e+02     
  76.000          90.000            1.879e+00           1.879e+00             121.373           7.209e-12             205.149           1.000e+02     
  77.000          90.000            2.012e+00           2.012e+00             120.863           6.465e-12             206.579           1.000e+02     
  78.000          90.000            2.143e+00           2.143e+00             120.407           5.736e-12             208.220           1.000e+02     
  79.000          90.000            2.269e+00           2.269e+00             120.000           5.032e-12             210.119           1.000e+02     
  80.000          90.000            2.390e+00           2.390e+00             119.637           4.361e-12             212.341           1.000e+02     
  81.000          90.000            2.504e+00           2.504e+00             119.317           3.730e-12             214.968           1.000e+02     
  82.000          90.000            2.610e+00           2.610e+00             119.034           3.148e-12             218.113           1.000e+02     
  83.000          90.000            2.707e+00           2.707e+00             118.787           2.621e-12             221.922           1.000e+02     
  84.000          90.000            2.793e+00           2.793e+00             118.573           2.157e-12             226.588           1.000e+02     
  85.000          90.000            2.868e+00           2.868e+00             118.391           1.760e-12             232.351           1.000e+02     
  86.000          90.000            2.931e+00           2.931e+00             118.238           1.437e-12             239.489           1.000e+02     
  87.000          90.000            2.981e+00           2.981e+00             118.114           1.191e-12             248.249           1.000e+02     
  88.000          90.000            3.017e+00           3.017e+00             118.019           1.026e-12             258.695           1.000e+02     
  89.000          90.000            3.039e+00           3.039e+00             117.950           9.448e-13             270.493           1.000e+02     
  90.000          90.000            3.046e+00           3.046e+00             117.908           9.482e-13             282.807           1.000e+02     
  91.000          90.000            3.040e+00           3.040e+00             117.892           1.037e-12             294.551           1.000e+02     
  92.000          90.000            3.019e+00           3.019e+00             117.903           1.210e-12             304.912           1.000e+02     
  93.000          90.000            2.984e+00           2.984e+00             117.940           1.466e-12             313.574           1.000e+02     
  94.000          90.000            2.935e+00           2.935e+00             118.005           1.802e-12             320.617           1.000e+02     
  95.000          90.000            2.873e+00           2.873e+00             118.097           2.215e-12             326.292           1.000e+02     
  96.000          90.000            2.799e+00           2.799e+00             118.218           2.699e-12             330.873           1.000e+02     
  97.000          90.000            2.713e+00           2.713e+00             118.369           3.250e-12             334.600           1.000e+02     
  98.000          90.000            2.617e+00           2.617e+00             118.552           3.861e-12             337.663           1.000e+02     
  99.000          90.000            2.512e+00           2.512e+00             118.768           4.525e-12             340.207           1.000e+02     
 100.000          90.000            2.398e+00           2.398e+00             119.019           5.235e-12             342.342           1.000e+02     
 101.000          90.000            2.277e+00           2.277e+00             119.309           5.983e-12             344.150           1.000e+02     
 102.000          90.000            2.151e+00           2.151e+00             119.641           6.760e-12             345.694           1.000e+02     
 103.000          90.000            2.020e+00           2.020e+00             120.018           7.559e-12             347.022           1.000e+02     
 104.000          90.000            1.886e+00           1.886e+00             120.445           8.370e-12             348.171           1.000e+02     
 105.000          90.000            1.751e+00           1.751e+00             120.927           9.186e-12             349.170           1.000e+02     
 106.000          90.000            1.616e+00           1.616e+00             121.471           9.997e-12             350.042           1.000e+02     
 107.000          90.000            1.481e+00           1.481e+00             122.085           1.080e-11             350.806           1.000e+02     
 108.000          90.000            1.348e+00           1.348e+00             122.777           1.157e-11             351.476           1.000e+02     
 109.000          90.000            1.219e+00           1.219e+00             123.559           1.232e-11             352.064           1.000e+02     
 110.000          90.000            1.094e+00           1.094e+00             124.444           1.304e-11             352.579           1.000e+02     
 111.000          90.000            9.745e-01           9.745e-01             125.449           1.372e-11             353.031           1.000e+02     
 112.000          90.000            8.608e-01           8.608e-01             126.594           1.434e-11             353.424           1.000e+02     
 113.000          90.000            7.538e-01           7.538e-01             127.903           1.492e-11             353.765           1.000e+02     
 114.000          90.000            6.542e-01           6.542e-01             129.408           1.544e-11             354.059           1.000e+02     
 115.000          90.000            5.622e-01           5.622e-01             131.148           1.591e-11             354.308           1.000e+02     
 116.000          90.000            4.784e-01           4.784e-01             133.171           1.631e-11             354.517           1.000e+02     
 117.000          90.000            4.029e-01           4.029e-01             135.540           1.664e-11             354.687           1.000e+02     
 118.000          90.000            3.358e-01           3.358e-01             138.334           1.692e-11             354.821           1.000e+02     
 119.000          90.000            2.771e-01           2.771e-01             141.652           1.712e-11             354.921           1.000e+02     
 120.000          90.000            2.266e-01           2.266e-01             145.617           1.727e-11             354.988           1.000e+02     
 121.000          90.000            1.842e-01           1.842e-01             150.377           1.735e-11             355.024           1.000e+02     
 122.000          90.000            1.496e-01           1.496e-01             156.096           1.736e-11             355.028           1.000e+02     
 123.000          90.000            1.223e-01           1.223e-01             162.930           1.732e-11             355.003           1.000e+02     
 124.000          90.000            1.020e-01           1.020e-01             170.967           1.722e-11             354.948           1.000e+02     
 125.000          90.000            8.810e-02           8.810e-02             180.139           1.706e-11             354.863           1.000e+02     
 126.000          90.000            8.011e-02           8.011e-02             190.133           1.686e-11             354.750           1.000e+02     
 127.000          90.000            7.745e-02           7.745e-02             200.394           1.661e-11             354.608           1.000e+02     
 128.000          90.000            7.953e-02           7.953e-02             210.276           1.631e-11             354.437           1.000e+02     
 129.000          90.000            8.574e-02           8.574e-02             219.261           1.598e-11             354.237           1.000e+02     
 130.000          90.000            9.547e-02           9.547e-02             227.086           1.561e-11             354.007           1.000e+02     
 131.000          90.000            1.081e-01           1.081e-01             233.718           1.520e-11             353.748           1.000e+02     
 132.000          90.000            1.231e-01           1.231e-01             239.264           1.478e-11             353.458           1.000e+02     
 133.000          90.000            1.399e-01           1.399e-01             243.884           1.433e-11             353.137           1.000e+02     
 134.000          90.000            1.579e-01           1.579e-01             247.742           1.386e-11             352.786           1.000e+02     
 135.000          90.000            1.766e-01           1.766e-01             250.979           1.339e-11             352.402           1.000e+02     
 136.000          90.000            1.955e-01           1.955e-01             253.716           1.290e-11             351.985           1.000e+02     
 137.000          90.000            2.144e-01           2.144e-01             256.047           1.240e-11             351.535           1.000e+02     
 138.000          90.000            2.326e-01           2.326e-01             258.048           1.190e-11             351.052           1.000e+02     
 139.000          90.000            2.500e-01           2.500e-01             259.779           1.141e-11             350.533           1.000e+02     
 140.000          90.000            2.661e-01           2.661e-01             261.287           1.091e-11             349.979           1.000e+02     
 141.000          90.000            2.808e-01           2.808e-01             262.609           1.043e-11             349.389           1.000e+02     
 142.000          90.000            2.939e-01           2.939e-01             263.774           9.947e-12             348.762           1.000e+02     
 143.000          90.000            3.051e-01           3.051e-01             264.808           9.479e-12             348.098           1.000e+02     
 144.000          90.000            3.144e-01           3.144e-01             265.729           9.024e-12             347.396           1.000e+02     
 145.000          90.000            3.217e-01           3.217e-01             266.554           8.583e-12             346.656           1.000e+02     
 146.000          90.000            3.269e-01           3.269e-01             267.296           8.157e-12             345.879           1.000e+02     
 147.000          90.000            3.299e-01           3.299e-01             267.965           7.748e-12             345.063           1.000e+02     
 148.000          90.000            3.310e-01           3.310e-01             268.571           7.356e-12             344.210           1.000e+02     
 149.000          90.000            3.299e-01           3.299e-01             269.121           6.983e-12             343.320           1.000e+02     
 150.000          90.000            3.269e-01           3.269e-01             269.623           6.628e-12             342.394           1.000e+02     
 151.000          90.000            3.221e-01           3.221e-01             270.080           6.291e-12             341.430           1.000e+02     
 152.000          90.000            3.154e-01           3.154e-01             270.499           5.973e-12             340.435           1.000e+02     
 153.000          90.000            3.072e-01           3.072e-01             270.882           5.674e-12             339.409           1.000e+02     
 154.000          90.000            2.974e-01           2.974e-01             271.235           5.393e-12             338.354           1.000e+02     
 155.000          90.000            2.863e-01           2.863e-01             271.559           5.131e-12             337.274           1.000e+02     
 156.000          90.000            2.739e-01           2.739e-01             271.857           4.886e-12             336.170           1.000e+02     
 157.000          90.000            2.606e-01           2.606e-01             272.131           4.659e-12             335.049           1.000e+02     
 158.000          90.000            2.464e-01           2.464e-01             272.384           4.447e-12             333.912           1.000e+02     
 159.000          90.000            2.314e-01           2.314e-01             272.618           4.252e-12             332.767           1.000e+02     
 160.000          90.000            2.160e-01           2.160e-01             272.833           4.072e-12             331.617           1.000e+02     
 161.000          90.000            2.001e-01           2.001e-01             273.031           3.907e-12             330.468           1.000e+02     
 162.000          90.000            1.841e-01           1.841e-01             273.214           3.755e-12             329.326           1.000e+02     
 163.000          90.000            1.679e-01           1.679e-01             273.382           3.616e-12             328.197           1.000e+02     
 164.000          90.000            1.519e-01           1.519e-01             273.536           3.490e-12             327.088           1.000e+02     
 165.000          90.000            1.361e-01           1.361e-01             273.678           3.375e-12             326.005           1.000e+02     
 166.000          90.000            1.207e-01           1.207e-01             273.808           3.271e-12             324.955           1.000e+02     
 167.000          90.000            1.058e-01           1.058e-01             273.926           3.177e-12             323.943           1.000e+02     
 168.000          90.000            9.147e-02           9.147e-02             274.033           3.093e-12             322.976           1.000e+02     
 169.000          90.000            7.790e-02           7.790e-02             274.130           3.017e-12             322.061           1.000e+02     
 170.000          90.000            6.516e-02           6.516e-02             274.218           2.949e-12             321.202           1.000e+02     
 171.000          90.000            5.335e-02           5.335e-02             274.296           2.889e-12             320.405           1.000e+02     
 172.000          90.000            4.256e-02           4.256e-02             274.364           2.837e-12             319.676           1.000e+02     
 173.000          90.000            3.286e-02           3.286e-02             274.425           2.790e-12             319.018           1.000e+02     
 174.000          90.000            2.431e-02           2.431e-02             274.476           2.751e-12             318.437           1.000e+02     
 175.000          90.000            1.699e-02           1.699e-02             274.519           2.717e-12             317.935           1.000e+02     
 176.000          90.000            1.092e-02           1.092e-02             274.555           2.688e-12             317.515           1.000e+02     
 177.000          90.000            6.168e-03           6.168e-03             274.582           2.665e-12             317.181           1.000e+02     
 178.000          90.000            2.749e-03           2.749e-03             274.602           2.647e-12             316.933           1.000e+02     
 179.000          90.000            6.884e-04           6.884e-04             274.614           2.634e-12             316.775           1.000e+02     
 180.000          90.000            4.918e-12           2.293e-12             313.957           2.625e-12             316.707           4.176e+01     
