Theta [deg.]  Phi   [deg.]  Abs(Dir.)[      ]   Abs(Theta)[      ]  Phase(Theta)[deg.]  Abs(Phi  )[      ]  Phase(Phi  )[deg.]  Ax.Ratio[      ]    
------------------------------------------------------------------------------------------------------------------------------------------------------
   0.000          90.000            1.114e-11           1.113e-11             171.102           5.577e-15             249.553           4.560e+01     
   1.000          90.000            1.467e-03           1.467e-03             269.249           5.560e-15             249.447           1.000e+02     
   2.000          90.000            5.863e-03           5.863e-03             269.244           5.535e-15             249.341           1.000e+02     
   3.000          90.000            1.317e-02           1.317e-02             269.233           5.502e-15             249.236           1.000e+02     
   4.000          90.000            2.337e-02           2.337e-02             269.217           5.461e-15             249.132           1.000e+02     
   5.000          90.000            3.642e-02           3.642e-02             269.196           5.412e-15             249.030           1.000e+02     
   6.000          90.000            5.228e-02           5.228e-02             269.170           5.356e-15             248.932           1.000e+02     
   7.000          90.000            7.088e-02           7.088e-02             269.139           5.292e-15             248.839           1.000e+02     
   8.000          90.000            9.216e-02           9.216e-02             269.103           5.222e-15             248.752           1.000e+02     
   9.000          90.000            1.160e-01           1.160e-01             269.062           5.145e-15             248.672           1.000e+02     
  10.000          90.000            1.424e-01           1.424e-01             269.016           5.062e-15             248.600           1.000e+02     
  11.000          90.000            1.712e-01           1.712e-01             268.965           4.973e-15             248.540           1.000e+02     
  12.000          90.000            2.022e-01           2.022e-01             268.908           4.878e-15             248.492           1.000e+02     
  13.000          90.000            2.353e-01           2.353e-01             268.845           4.778e-15             248.458           1.000e+02     
  14.000          90.000            2.704e-01           2.704e-01             268.776           4.673e-15             248.441           1.000e+02     
  15.000          90.000            3.073e-01           3.073e-01             268.702           4.563e-15             248.442           1.000e+02     
  16.000          90.000            3.457e-01           3.457e-01             268.621           4.448e-15             248.465           1.000e+02     
  17.000          90.000            3.856e-01           3.856e-01             268.534           4.330e-15             248.511           1.000e+02     
  18.000          90.000            4.266e-01           4.266e-01             268.439           4.208e-15             248.585           1.000e+02     
  19.000          90.000            4.685e-01           4.685e-01             268.338           4.084e-15             248.688           1.000e+02     
  20.000          90.000            5.110e-01           5.110e-01             268.229           3.956e-15             248.825           1.000e+02     
  21.000          90.000            5.539e-01           5.539e-01             268.112           3.826e-15             248.998           1.000e+02     
  22.000          90.000            5.968e-01           5.968e-01             267.987           3.695e-15             249.212           1.000e+02     
  23.000          90.000            6.394e-01           6.394e-01             267.852           3.562e-15             249.471           1.000e+02     
  24.000          90.000            6.814e-01           6.814e-01             267.708           3.429e-15             249.778           1.000e+02     
  25.000          90.000            7.224e-01           7.224e-01             267.554           3.295e-15             250.140           1.000e+02     
  26.000          90.000            7.621e-01           7.621e-01             267.389           3.162e-15             250.560           1.000e+02     
  27.000          90.000            8.001e-01           8.001e-01             267.212           3.029e-15             251.044           1.000e+02     
  28.000          90.000            8.359e-01           8.359e-01             267.022           2.898e-15             251.598           1.000e+02     
  29.000          90.000            8.693e-01           8.693e-01             266.819           2.768e-15             252.226           1.000e+02     
  30.000          90.000            8.997e-01           8.997e-01             266.600           2.641e-15             252.934           1.000e+02     
  31.000          90.000            9.269e-01           9.269e-01             266.366           2.517e-15             253.729           1.000e+02     
  32.000          90.000            9.505e-01           9.505e-01             266.113           2.396e-15             254.616           1.000e+02     
  33.000          90.000            9.700e-01           9.700e-01             265.840           2.280e-15             255.601           1.000e+02     
  34.000          90.000            9.853e-01           9.853e-01             265.546           2.167e-15             256.689           1.000e+02     
  35.000          90.000            9.959e-01           9.959e-01             265.228           2.060e-15             257.885           1.000e+02     
  36.000          90.000            1.002e+00           1.002e+00             264.883           1.958e-15             259.193           1.000e+02     
  37.000          90.000            1.002e+00           1.002e+00             264.508           1.861e-15             260.615           1.000e+02     
  38.000          90.000            9.974e-01           9.974e-01             264.100           1.771e-15             262.154           1.000e+02     
  39.000          90.000            9.872e-01           9.872e-01             263.653           1.687e-15             263.809           1.000e+02     
  40.000          90.000            9.715e-01           9.715e-01             263.165           1.609e-15             265.579           1.000e+02     
  41.000          90.000            9.503e-01           9.503e-01             262.627           1.538e-15             267.458           1.000e+02     
  42.000          90.000            9.238e-01           9.238e-01             262.033           1.474e-15             269.440           1.000e+02     
  43.000          90.000            8.919e-01           8.919e-01             261.375           1.417e-15             271.513           1.000e+02     
  44.000          90.000            8.551e-01           8.551e-01             260.643           1.366e-15             273.667           1.000e+02     
  45.000          90.000            8.136e-01           8.136e-01             259.823           1.322e-15             275.885           1.000e+02     
  46.000          90.000            7.679e-01           7.679e-01             258.901           1.284e-15             278.149           1.000e+02     
  47.000          90.000            7.186e-01           7.186e-01             257.857           1.252e-15             280.440           1.000e+02     
  48.000          90.000            6.661e-01           6.661e-01             256.668           1.225e-15             282.738           1.000e+02     
  49.000          90.000            6.113e-01           6.113e-01             255.303           1.204e-15             285.021           1.000e+02     
  50.000          90.000            5.549e-01           5.549e-01             253.723           1.187e-15             287.269           1.000e+02     
  51.000          90.000            4.978e-01           4.978e-01             251.877           1.174e-15             289.464           1.000e+02     
  52.000          90.000            4.410e-01           4.410e-01             249.701           1.163e-15             291.587           1.000e+02     
  53.000          90.000            3.854e-01           3.854e-01             247.107           1.156e-15             293.624           1.000e+02     
  54.000          90.000            3.321e-01           3.321e-01             243.980           1.149e-15             295.562           1.000e+02     
  55.000          90.000            2.823e-01           2.823e-01             240.168           1.144e-15             297.393           1.000e+02     
  56.000          90.000            2.371e-01           2.371e-01             235.469           1.138e-15             299.107           1.000e+02     
  57.000          90.000            1.975e-01           1.975e-01             229.633           1.131e-15             300.702           1.000e+02     
  58.000          90.000            1.646e-01           1.646e-01             222.375           1.122e-15             302.174           1.000e+02     
  59.000          90.000            1.396e-01           1.396e-01             213.451           1.110e-15             303.522           1.000e+02     
  60.000          90.000            1.234e-01           1.234e-01             202.816           1.095e-15             304.766           1.000e+02     
  61.000          90.000            1.170e-01           1.170e-01             190.881           1.076e-15             305.870           1.000e+02     
  62.000          90.000            1.212e-01           1.212e-01             178.549           1.052e-15             306.854           1.000e+02     
  63.000          90.000            1.368e-01           1.368e-01             166.919           1.024e-15             307.720           1.000e+02     
  64.000          90.000            1.641e-01           1.641e-01             156.767           9.898e-16             308.468           1.000e+02     
  65.000          90.000            2.038e-01           2.038e-01             148.348           9.505e-16             309.101           1.000e+02     
  66.000          90.000            2.559e-01           2.559e-01             141.545           9.059e-16             309.618           1.000e+02     
  67.000          90.000            3.205e-01           3.205e-01             136.088           8.561e-16             310.018           1.000e+02     
  68.000          90.000            3.975e-01           3.975e-01             131.698           8.015e-16             310.297           1.000e+02     
  69.000          90.000            4.865e-01           4.865e-01             128.139           7.426e-16             310.451           1.000e+02     
  70.000          90.000            5.868e-01           5.868e-01             125.225           6.801e-16             310.470           1.000e+02     
  71.000          90.000            6.977e-01           6.977e-01             122.814           6.147e-16             310.339           1.000e+02     
  72.000          90.000            8.182e-01           8.182e-01             120.800           5.476e-16             310.040           1.000e+02     
  73.000          90.000            9.470e-01           9.470e-01             119.104           4.797e-16             309.543           1.000e+02     
  74.000          90.000            1.083e+00           1.083e+00             117.664           4.122e-16             308.803           1.000e+02     
  75.000          90.000            1.224e+00           1.224e+00             116.435           3.465e-16             307.758           1.000e+02     
  76.000          90.000            1.369e+00           1.369e+00             115.379           2.836e-16             306.310           1.000e+02     
  77.000          90.000            1.515e+00           1.515e+00             114.471           2.251e-16             304.309           1.000e+02     
  78.000          90.000            1.661e+00           1.661e+00             113.686           1.720e-16             301.511           1.000e+02     
  79.000          90.000            1.806e+00           1.806e+00             113.008           1.257e-16             297.503           1.000e+02     
  80.000          90.000            1.946e+00           1.946e+00             112.423           8.720e-17             291.561           1.000e+02     
  81.000          90.000            2.080e+00           2.080e+00             111.920           5.751e-17             282.387           1.000e+02     
  82.000          90.000            2.206e+00           2.206e+00             111.489           3.748e-17             267.869           1.000e+02     
  83.000          90.000            2.323e+00           2.323e+00             111.123           2.777e-17             246.250           1.000e+02     
  84.000          90.000            2.427e+00           2.427e+00             110.816           2.883e-17             221.088           1.000e+02     
  85.000          90.000            2.519e+00           2.519e+00             110.563           4.092e-17             200.515           1.000e+02     
  86.000          90.000            2.595e+00           2.595e+00             110.361           6.407e-17             186.954           1.000e+02     
  87.000          90.000            2.656e+00           2.656e+00             110.207           9.807e-17             178.367           1.000e+02     
  88.000          90.000            2.701e+00           2.701e+00             110.099           1.425e-16             172.757           1.000e+02     
  89.000          90.000            2.728e+00           2.728e+00             110.034           1.967e-16             168.932           1.000e+02     
  90.000          90.000            2.737e+00           2.737e+00             110.012           2.600e-16             166.257           1.000e+02     
  91.000          90.000            2.728e+00           2.728e+00             110.034           3.310e-16             164.291           1.000e+02     
  92.000          90.000            2.701e+00           2.701e+00             110.099           4.088e-16             162.838           1.000e+02     
  93.000          90.000            2.656e+00           2.656e+00             110.207           4.919e-16             161.754           1.000e+02     
  94.000          90.000            2.595e+00           2.595e+00             110.361           5.790e-16             160.948           1.000e+02     
  95.000          90.000            2.519e+00           2.519e+00             110.563           6.685e-16             160.355           1.000e+02     
  96.000          90.000            2.427e+00           2.427e+00             110.816           7.590e-16             159.932           1.000e+02     
  97.000          90.000            2.323e+00           2.323e+00             111.123           8.488e-16             159.648           1.000e+02     
  98.000          90.000            2.206e+00           2.206e+00             111.489           9.366e-16             159.480           1.000e+02     
  99.000          90.000            2.080e+00           2.080e+00             111.920           1.021e-15             159.410           1.000e+02     
 100.000          90.000            1.946e+00           1.946e+00             112.423           1.100e-15             159.426           1.000e+02     
 101.000          90.000            1.806e+00           1.806e+00             113.008           1.174e-15             159.519           1.000e+02     
 102.000          90.000            1.661e+00           1.661e+00             113.686           1.240e-15             159.680           1.000e+02     
 103.000          90.000            1.515e+00           1.515e+00             114.471           1.299e-15             159.903           1.000e+02     
 104.000          90.000            1.369e+00           1.369e+00             115.379           1.349e-15             160.183           1.000e+02     
 105.000          90.000            1.224e+00           1.224e+00             116.435           1.389e-15             160.516           1.000e+02     
 106.000          90.000            1.083e+00           1.083e+00             117.664           1.421e-15             160.899           1.000e+02     
 107.000          90.000            9.470e-01           9.470e-01             119.104           1.442e-15             161.329           1.000e+02     
 108.000          90.000            8.182e-01           8.182e-01             120.800           1.454e-15             161.802           1.000e+02     
 109.000          90.000            6.977e-01           6.977e-01             122.814           1.457e-15             162.316           1.000e+02     
 110.000          90.000            5.868e-01           5.868e-01             125.225           1.450e-15             162.868           1.000e+02     
 111.000          90.000            4.865e-01           4.865e-01             128.139           1.435e-15             163.456           1.000e+02     
 112.000          90.000            3.975e-01           3.975e-01             131.698           1.412e-15             164.076           1.000e+02     
 113.000          90.000            3.205e-01           3.205e-01             136.088           1.381e-15             164.726           1.000e+02     
 114.000          90.000            2.559e-01           2.559e-01             141.545           1.344e-15             165.402           1.000e+02     
 115.000          90.000            2.038e-01           2.038e-01             148.348           1.301e-15             166.100           1.000e+02     
 116.000          90.000            1.641e-01           1.641e-01             156.767           1.252e-15             166.815           1.000e+02     
 117.000          90.000            1.368e-01           1.368e-01             166.919           1.199e-15             167.542           1.000e+02     
 118.000          90.000            1.212e-01           1.212e-01             178.549           1.143e-15             168.276           1.000e+02     
 119.000          90.000            1.170e-01           1.170e-01             190.881           1.083e-15             169.010           1.000e+02     
 120.000          90.000            1.234e-01           1.234e-01             202.816           1.022e-15             169.737           1.000e+02     
 121.000          90.000            1.396e-01           1.396e-01             213.451           9.597e-16             170.446           1.000e+02     
 122.000          90.000            1.646e-01           1.646e-01             222.375           8.962e-16             171.133           1.000e+02     
 123.000          90.000            1.975e-01           1.975e-01             229.633           8.327e-16             171.781           1.000e+02     
 124.000          90.000            2.371e-01           2.371e-01             235.469           7.696e-16             172.377           1.000e+02     
 125.000          90.000            2.823e-01           2.823e-01             240.168           7.073e-16             172.906           1.000e+02     
 126.000          90.000            3.321e-01           3.321e-01             243.980           6.465e-16             173.350           1.000e+02     
 127.000          90.000            3.854e-01           3.854e-01             247.107           5.874e-16             173.686           1.000e+02     
 128.000          90.000            4.410e-01           4.410e-01             249.701           5.304e-16             173.891           1.000e+02     
 129.000          90.000            4.978e-01           4.978e-01             251.877           4.757e-16             173.934           1.000e+02     
 130.000          90.000            5.549e-01           5.549e-01             253.723           4.238e-16             173.778           1.000e+02     
 131.000          90.000            6.113e-01           6.113e-01             255.303           3.749e-16             173.379           1.000e+02     
 132.000          90.000            6.661e-01           6.661e-01             256.668           3.291e-16             172.685           1.000e+02     
 133.000          90.000            7.186e-01           7.186e-01             257.857           2.868e-16             171.628           1.000e+02     
 134.000          90.000            7.679e-01           7.679e-01             258.901           2.480e-16             170.129           1.000e+02     
 135.000          90.000            8.136e-01           8.136e-01             259.823           2.131e-16             168.087           1.000e+02     
 136.000          90.000            8.551e-01           8.551e-01             260.643           1.822e-16             165.386           1.000e+02     
 137.000          90.000            8.919e-01           8.919e-01             261.375           1.554e-16             161.890           1.000e+02     
 138.000          90.000            9.238e-01           9.238e-01             262.033           1.330e-16             157.461           1.000e+02     
 139.000          90.000            9.503e-01           9.503e-01             262.627           1.152e-16             151.982           1.000e+02     
 140.000          90.000            9.715e-01           9.715e-01             263.165           1.021e-16             145.414           1.000e+02     
 141.000          90.000            9.872e-01           9.872e-01             263.653           9.378e-17             137.866           1.000e+02     
 142.000          90.000            9.974e-01           9.974e-01             264.100           9.051e-17             129.646           1.000e+02     
 143.000          90.000            1.002e+00           1.002e+00             264.508           9.237e-17             121.242           1.000e+02     
 144.000          90.000            1.002e+00           1.002e+00             264.883           9.948e-17             113.185           1.000e+02     
 145.000          90.000            9.959e-01           9.959e-01             265.228           1.119e-16             105.896           1.000e+02     
 146.000          90.000            9.853e-01           9.853e-01             265.546           1.298e-16              99.593           1.000e+02     
 147.000          90.000            9.700e-01           9.700e-01             265.840           1.531e-16              94.311           1.000e+02     
 148.000          90.000            9.505e-01           9.505e-01             266.113           1.819e-16              89.972           1.000e+02     
 149.000          90.000            9.269e-01           9.269e-01             266.366           2.161e-16              86.447           1.000e+02     
 150.000          90.000            8.997e-01           8.997e-01             266.600           2.557e-16              83.599           1.000e+02     
 151.000          90.000            8.693e-01           8.693e-01             266.819           3.007e-16              81.304           1.000e+02     
 152.000          90.000            8.359e-01           8.359e-01             267.022           3.509e-16              79.456           1.000e+02     
 153.000          90.000            8.001e-01           8.001e-01             267.212           4.061e-16              77.969           1.000e+02     
 154.000          90.000            7.621e-01           7.621e-01             267.389           4.662e-16              76.774           1.000e+02     
 155.000          90.000            7.224e-01           7.224e-01             267.554           5.309e-16              75.814           1.000e+02     
 156.000          90.000            6.814e-01           6.814e-01             267.708           6.001e-16              75.047           1.000e+02     
 157.000          90.000            6.394e-01           6.394e-01             267.852           6.734e-16              74.435           1.000e+02     
 158.000          90.000            5.968e-01           5.968e-01             267.987           7.505e-16              73.952           1.000e+02     
 159.000          90.000            5.539e-01           5.539e-01             268.112           8.311e-16              73.574           1.000e+02     
 160.000          90.000            5.110e-01           5.110e-01             268.229           9.148e-16              73.282           1.000e+02     
 161.000          90.000            4.685e-01           4.685e-01             268.338           1.001e-15              73.062           1.000e+02     
 162.000          90.000            4.266e-01           4.266e-01             268.439           1.090e-15              72.902           1.000e+02     
 163.000          90.000            3.856e-01           3.856e-01             268.534           1.181e-15              72.790           1.000e+02     
 164.000          90.000            3.457e-01           3.457e-01             268.621           1.273e-15              72.718           1.000e+02     
 165.000          90.000            3.073e-01           3.073e-01             268.702           1.367e-15              72.681           1.000e+02     
 166.000          90.000            2.704e-01           2.704e-01             268.776           1.461e-15              72.670           1.000e+02     
 167.000          90.000            2.353e-01           2.353e-01             268.845           1.556e-15              72.683           1.000e+02     
 168.000          90.000            2.022e-01           2.022e-01             268.908           1.650e-15              72.714           1.000e+02     
 169.000          90.000            1.712e-01           1.712e-01             268.965           1.744e-15              72.761           1.000e+02     
 170.000          90.000            1.424e-01           1.424e-01             269.016           1.836e-15              72.819           1.000e+02     
 171.000          90.000            1.160e-01           1.160e-01             269.062           1.928e-15              72.887           1.000e+02     
 172.000          90.000            9.216e-02           9.216e-02             269.103           2.017e-15              72.963           1.000e+02     
 173.000          90.000            7.088e-02           7.088e-02             269.139           2.104e-15              73.044           1.000e+02     
 174.000          90.000            5.228e-02           5.228e-02             269.170           2.189e-15              73.129           1.000e+02     
 175.000          90.000            3.642e-02           3.642e-02             269.196           2.270e-15              73.217           1.000e+02     
 176.000          90.000            2.337e-02           2.337e-02             269.217           2.348e-15              73.306           1.000e+02     
 177.000          90.000            1.317e-02           1.317e-02             269.233           2.422e-15              73.396           1.000e+02     
 178.000          90.000            5.863e-03           5.863e-03             269.244           2.492e-15              73.485           1.000e+02     
 179.000          90.000            1.467e-03           1.467e-03             269.249           2.558e-15              73.573           1.000e+02     
 180.000          90.000            1.130e-11           1.130e-11             171.382           2.619e-15              73.659           6.628e+01     
